Bore: BHMAR23-1
Lasfile: BHMAR23-1_InductionConductivity_Final.las
Easting: 620436.75
Northing: 6428003.89
Elevation: 65.14
Depth(m) Conductivity(mS/m)
2.003000 87.098000
2.027000 88.255000
2.053000 90.571000
2.078000 91.731000
2.103000 95.215000
2.128000 96.378000
2.152000 98.707000
2.178000 99.872000
2.203000 102.575000
2.228000 105.712000
2.253000 107.006000
2.277000 109.226000
2.303000 111.450000
2.328000 113.923000
2.353000 115.570000
2.378000 118.633000
2.402000 120.371000
2.428000 122.173000
2.453000 123.728000
2.478000 125.970000
2.503000 128.214000
2.527000 129.275000
2.553000 131.586000
2.578000 134.025000
2.603000 136.091000
2.628000 138.348000
2.652000 140.608000
2.678000 144.002000
2.703000 145.135000
2.728000 148.348000
2.753000 150.865000
2.777000 151.945000
2.803000 155.359000
2.828000 157.639000
2.853000 159.921000
2.878000 161.571000
2.902000 163.349000
2.928000 165.192000
2.953000 168.215000
2.978000 168.820000
3.003000 171.484000
3.027000 173.667000
3.053000 175.852000
3.078000 179.742000
3.103000 181.324000
3.128000 184.614000
3.152000 187.910000
3.178000 190.721000
3.203000 193.297000
3.228000 196.780000
3.253000 199.105000
3.277000 202.597000
3.303000 204.928000
3.328000 207.910000
3.353000 210.006000
3.378000 212.845000
3.402000 216.678000
3.428000 217.792000
3.453000 222.487000
3.478000 223.989000
3.503000 226.722000
3.527000 228.960000
3.553000 231.908000
3.578000 233.941000
3.603000 236.632000
3.628000 237.815000
3.652000 240.181000
3.678000 241.432000
3.703000 243.736000
3.728000 244.922000
3.753000 244.922000
3.777000 247.296000
3.803000 247.296000
3.828000 248.946000
3.853000 250.326000
3.878000 250.201000
3.902000 250.861000
3.928000 252.051000
3.953000 252.051000
3.978000 253.969000
4.003000 253.717000
4.027000 256.484000
4.053000 255.623000
4.077000 258.007000
4.103000 258.007000
4.128000 260.261000
4.152000 260.394000
4.178000 262.783000
4.202000 263.918000
4.228000 266.570000
4.253000 267.568000
4.277000 269.098000
4.303000 269.963000
4.327000 272.895000
4.353000 275.963000
4.378000 276.697000
4.402000 278.728000
4.428000 281.776000
4.452000 284.386000
4.478000 285.592000
4.503000 288.005000
4.527000 290.688000
4.553000 292.837000
4.577000 295.795000
4.603000 297.073000
4.628000 299.631000
4.652000 302.833000
4.678000 303.473000
4.702000 306.173000
4.728000 308.605000
4.753000 310.917000
4.777000 312.460000
4.803000 313.232000
4.827000 316.321000
4.853000 317.134000
4.878000 318.898000
4.902000 319.026000
4.928000 320.187000
4.952000 322.020000
4.978000 321.477000
5.003000 323.243000
5.027000 322.767000
5.053000 324.467000
5.077000 324.059000
5.103000 324.467000
5.128000 325.351000
5.152000 324.467000
5.178000 326.643000
5.202000 325.997000
5.228000 325.351000
5.253000 326.915000
5.277000 326.643000
5.303000 326.915000
5.327000 327.936000
5.353000 327.160000
5.378000 327.936000
5.402000 328.140000
5.428000 329.230000
5.452000 330.653000
5.478000 331.819000
5.503000 333.046000
5.527000 334.410000
5.553000 336.486000
5.577000 338.303000
5.603000 340.422000
5.628000 342.200000
5.652000 345.349000
5.678000 346.103000
5.702000 349.051000
5.728000 351.316000
5.753000 353.994000
5.777000 356.538000
5.803000 358.946000
5.827000 360.461000
5.853000 362.666000
5.878000 365.700000
5.902000 367.011000
5.928000 369.636000
5.952000 371.364000
5.978000 373.577000
6.003000 375.286000
6.027000 376.207000
6.053000 378.840000
6.077000 380.157000
6.103000 380.026000
6.128000 381.475000
6.152000 382.586000
6.178000 381.475000
6.202000 382.398000
6.228000 382.794000
6.253000 381.336000
6.277000 381.475000
6.303000 380.026000
6.327000 378.840000
6.353000 376.346000
6.378000 374.892000
6.402000 372.608000
6.428000 369.636000
6.452000 366.390000
6.478000 364.389000
6.503000 361.425000
6.527000 360.461000
6.553000 356.469000
6.577000 353.925000
6.603000 350.286000
6.628000 347.405000
6.652000 344.117000
6.678000 339.601000
6.702000 336.486000
6.728000 331.819000
6.753000 326.915000
6.777000 324.059000
6.803000 319.576000
6.827000 316.321000
6.853000 313.232000
6.878000 311.174000
6.902000 308.605000
6.928000 306.038000
6.952000 306.173000
6.978000 304.755000
7.003000 305.140000
7.028000 304.755000
7.053000 303.743000
7.077000 304.755000
7.103000 303.743000
7.128000 302.192000
7.153000 302.529000
7.178000 302.192000
7.202000 301.316000
7.228000 300.911000
7.253000 301.316000
7.278000 302.192000
7.303000 302.529000
7.327000 303.473000
7.353000 304.958000
7.378000 304.755000
7.403000 306.173000
7.428000 306.038000
7.452000 307.389000
7.478000 307.321000
7.503000 307.389000
7.528000 307.321000
7.553000 306.294000
7.577000 306.038000
7.603000 306.173000
7.628000 303.473000
7.653000 301.680000
7.678000 300.911000
7.702000 298.890000
7.728000 299.631000
7.753000 298.890000
7.778000 295.795000
7.803000 295.257000
7.827000 293.240000
7.853000 290.420000
7.878000 289.413000
7.903000 285.592000
7.928000 284.319000
7.952000 283.181000
7.978000 280.505000
8.002000 278.367000
8.027000 276.175000
8.052000 276.444000
8.077000 276.175000
8.102000 275.302000
8.127000 276.697000
8.152000 275.963000
8.177000 276.697000
8.202000 275.963000
8.227000 279.235000
8.252000 280.773000
8.277000 283.047000
8.302000 285.592000
8.327000 288.139000
8.352000 290.420000
8.377000 294.047000
8.402000 297.073000
8.427000 301.316000
8.452000 303.743000
8.477000 308.605000
8.502000 313.475000
8.527000 316.321000
8.552000 320.798000
8.577000 325.351000
8.602000 329.366000
8.627000 334.410000
8.652000 337.961000
8.680000 340.900000
8.702000 344.117000
8.727000 346.946000
8.752000 349.051000
8.777000 351.316000
8.802000 352.758000
8.827000 353.925000
8.852000 353.994000
8.877000 353.925000
8.902000 353.994000
8.927000 353.925000
8.952000 352.758000
8.977000 351.316000
9.002000 350.286000
9.027000 347.817000
9.052000 344.117000
9.077000 340.900000
9.102000 336.731000
9.127000 331.819000
9.152000 327.160000
9.177000 322.236000
9.202000 317.866000
9.227000 312.460000
9.252000 308.605000
9.277000 304.755000
9.302000 301.316000
9.327000 297.750000
9.352000 292.837000
9.377000 289.413000
9.402000 284.386000
9.427000 280.505000
9.452000 275.963000
9.477000 270.363000
9.502000 266.371000
9.527000 261.522000
9.552000 258.246000
9.577000 253.969000
9.602000 250.861000
9.627000 247.692000
9.652000 246.439000
9.677000 242.682000
9.702000 240.181000
9.727000 238.858000
9.752000 234.269000
9.777000 232.255000
9.802000 228.371000
9.827000 225.231000
9.852000 220.138000
9.877000 216.481000
9.902000 213.105000
9.927000 209.143000
9.952000 204.215000
9.977000 201.755000
10.003000 196.844000
10.028000 194.393000
10.052000 193.168000
10.077000 189.498000
10.102000 188.276000
10.128000 187.845000
10.153000 187.505000
10.177000 187.055000
10.202000 186.348000
10.227000 186.552000
10.253000 186.348000
10.278000 185.834000
10.302000 187.055000
10.327000 187.055000
10.352000 188.662000
10.378000 190.433000
10.403000 192.137000
10.427000 195.618000
10.452000 196.844000
10.477000 199.298000
10.503000 203.762000
10.528000 205.446000
10.552000 208.429000
10.577000 211.610000
10.602000 214.276000
10.628000 216.554000
10.653000 220.138000
10.677000 222.749000
10.702000 224.839000
10.727000 226.985000
10.753000 227.193000
10.778000 226.985000
10.802000 228.371000
10.827000 225.669000
10.852000 223.663000
10.878000 221.508000
10.903000 218.965000
10.927000 213.863000
10.952000 208.429000
10.977000 202.117000
11.003000 197.942000
11.028000 189.498000
11.052000 183.395000
11.077000 176.095000
11.102000 169.075000
11.128000 162.138000
11.153000 155.359000
11.177000 148.348000
11.202000 139.980000
11.227000 134.025000
11.253000 127.092000
11.278000 120.437000
11.302000 112.562000
11.327000 106.745000
11.352000 100.363000
11.378000 92.891000
11.403000 87.098000
11.427000 82.478000
11.452000 75.576000
11.477000 70.993000
11.503000 65.405000
11.528000 61.538000
11.552000 57.871000
11.577000 54.341000
11.602000 50.382000
11.628000 48.376000
11.653000 46.064000
11.677000 44.811000
11.702000 41.587000
11.727000 40.470000
11.753000 38.709000
11.778000 37.127000
11.802000 36.126000
11.827000 34.904000
11.852000 34.495000
11.878000 32.687000
11.903000 32.395000
11.927000 30.474000
11.952000 30.474000
11.977000 30.474000
12.003000 29.253000
12.028000 29.369000
12.052000 28.208000
12.077000 27.165000
12.102000 28.208000
12.128000 26.064000
12.153000 27.165000
12.177000 26.000000
12.202000 25.081000
12.227000 24.965000
12.253000 25.081000
12.278000 23.868000
12.302000 23.002000
12.327000 23.868000
12.352000 22.771000
12.378000 22.771000
12.403000 23.002000
12.427000 21.355000
12.452000 21.965000
12.477000 21.677000
12.503000 21.677000
12.528000 20.929000
12.552000 21.965000
12.577000 20.584000
12.602000 20.929000
12.628000 20.584000
12.653000 20.929000
12.677000 20.198000
12.702000 19.894000
12.727000 20.584000
12.753000 19.894000
12.778000 20.584000
12.802000 19.894000
12.827000 20.584000
12.852000 20.929000
12.878000 20.584000
12.903000 19.894000
12.927000 20.584000
12.952000 21.239000
12.977000 20.584000
13.003000 21.965000
13.028000 22.514000
13.052000 21.965000
13.077000 23.868000
13.102000 25.081000
13.128000 24.836000
13.153000 26.122000
13.177000 28.266000
13.202000 29.253000
13.227000 30.669000
13.253000 32.395000
13.278000 33.795000
13.302000 35.547000
13.327000 37.127000
13.352000 39.354000
13.378000 41.587000
13.403000 45.061000
13.427000 47.187000
13.452000 51.449000
13.477000 53.943000
13.503000 57.871000
13.528000 59.601000
13.552000 62.171000
13.577000 63.946000
13.602000 66.485000
13.628000 67.565000
13.653000 68.647000
13.677000 71.195000
13.702000 70.812000
13.727000 71.195000
13.753000 71.896000
13.778000 71.195000
13.802000 70.812000
13.827000 69.984000
13.852000 67.565000
13.878000 67.565000
13.903000 66.425000
13.927000 66.358000
13.952000 65.405000
13.977000 64.146000
14.003000 63.248000
14.028000 61.872000
14.052000 60.019000
14.077000 57.335000
14.102000 57.335000
14.128000 53.943000
14.153000 52.517000
14.177000 50.560000
14.202000 47.187000
14.227000 47.187000
14.253000 44.000000
14.278000 42.704000
14.302000 41.881000
14.327000 39.354000
14.352000 39.765000
14.378000 37.127000
14.403000 37.127000
14.427000 36.015000
14.452000 35.547000
14.477000 34.904000
14.503000 34.904000
14.528000 33.795000
14.552000 34.128000
14.577000 32.687000
14.602000 33.445000
14.628000 33.795000
14.653000 33.445000
14.677000 32.687000
14.702000 33.445000
14.727000 32.687000
14.753000 32.395000
14.778000 32.687000
14.802000 33.445000
14.827000 31.840000
14.852000 32.395000
14.878000 32.687000
14.903000 32.395000
14.927000 32.687000
14.952000 32.395000
14.977000 32.687000
15.002000 32.395000
15.028000 31.580000
15.052000 32.395000
15.077000 32.687000
15.102000 31.347000
15.127000 32.687000
15.153000 32.395000
15.177000 31.580000
15.202000 32.395000
15.227000 31.840000
15.252000 31.347000
15.278000 31.580000
15.302000 32.395000
15.327000 30.669000
15.352000 32.395000
15.377000 30.474000
15.403000 31.580000
15.427000 31.580000
15.452000 31.347000
15.477000 31.580000
15.502000 31.347000
15.528000 31.580000
15.552000 31.347000
15.577000 31.840000
15.602000 31.347000
15.627000 31.580000
15.653000 31.347000
15.677000 31.580000
15.702000 31.347000
15.727000 30.474000
15.752000 32.395000
15.778000 30.474000
15.802000 31.347000
15.827000 31.580000
15.852000 30.474000
15.877000 31.580000
15.903000 30.299000
15.927000 31.580000
15.952000 31.347000
15.977000 30.669000
16.002000 31.347000
16.028000 30.474000
16.052000 31.347000
16.078000 30.669000
16.102000 31.347000
16.127000 30.474000
16.153000 30.474000
16.177000 31.580000
16.203000 30.474000
16.227000 30.474000
16.252000 30.299000
16.278000 30.669000
16.302000 31.347000
16.328000 30.474000
16.352000 30.299000
16.377000 30.474000
16.403000 31.347000
16.427000 30.669000
16.453000 30.299000
16.477000 30.474000
16.502000 30.299000
16.528000 31.580000
16.552000 30.474000
16.578000 30.474000
16.602000 30.299000
16.627000 30.669000
16.653000 30.474000
16.677000 30.669000
16.703000 31.580000
16.727000 30.474000
16.752000 30.299000
16.778000 30.669000
16.802000 30.299000
16.828000 31.580000
16.852000 30.474000
16.877000 30.474000
16.903000 30.474000
16.927000 30.474000
16.953000 31.347000
16.977000 30.474000
17.002000 30.299000
17.028000 30.474000
17.052000 30.474000
17.078000 31.580000
17.102000 30.299000
17.127000 30.669000
17.153000 30.299000
17.177000 30.669000
17.203000 31.347000
17.227000 30.669000
17.252000 30.299000
17.278000 30.669000
17.302000 30.299000
17.328000 30.669000
17.352000 30.299000
17.377000 29.499000
17.403000 30.299000
17.427000 30.669000
17.453000 30.299000
17.477000 29.499000
17.502000 30.299000
17.528000 29.369000
17.552000 30.474000
17.578000 29.369000
17.602000 30.299000
17.627000 29.499000
17.653000 30.299000
17.677000 29.369000
17.703000 30.299000
17.727000 29.369000
17.752000 30.299000
17.778000 30.474000
17.802000 29.253000
17.828000 30.299000
17.852000 29.253000
17.877000 30.474000
17.903000 30.299000
17.927000 30.299000
17.953000 30.299000
17.977000 30.299000
18.002000 30.299000
18.028000 30.474000
18.052000 30.299000
18.078000 29.499000
18.102000 30.299000
18.127000 30.474000
18.153000 30.299000
18.177000 30.474000
18.203000 30.299000
18.227000 30.474000
18.252000 31.137000
18.278000 30.474000
18.302000 30.474000
18.328000 30.474000
18.352000 30.299000
18.377000 30.474000
18.403000 30.299000
18.427000 30.474000
18.453000 29.253000
18.477000 30.474000
18.502000 29.253000
18.530000 30.474000
18.552000 29.253000
18.578000 29.499000
18.602000 30.299000
18.627000 29.369000
18.653000 29.253000
18.677000 29.369000
18.703000 29.253000
18.730000 29.369000
18.752000 29.253000
18.778000 29.499000
18.802000 29.253000
18.828000 28.266000
18.852000 29.253000
18.877000 29.369000
18.903000 29.253000
18.927000 29.499000
18.953000 28.208000
18.977000 29.369000
19.002000 28.266000
19.028000 29.369000
19.052000 28.208000
19.078000 28.404000
19.102000 29.253000
19.127000 29.499000
19.153000 29.253000
19.177000 29.369000
19.203000 28.208000
19.227000 29.369000
19.252000 29.253000
19.278000 29.369000
19.302000 29.369000
19.328000 28.266000
19.352000 29.369000
19.377000 29.369000
19.403000 28.208000
19.427000 29.369000
19.453000 29.253000
19.477000 28.266000
19.502000 29.253000
19.528000 28.266000
19.552000 29.253000
19.578000 28.331000
19.602000 29.253000
19.627000 28.331000
19.653000 29.369000
19.677000 29.369000
19.703000 28.266000
19.727000 29.369000
19.752000 29.369000
19.778000 29.499000
19.802000 29.369000
19.828000 28.266000
19.852000 29.369000
19.877000 29.499000
19.903000 29.253000
19.927000 30.474000
19.953000 29.369000
19.977000 29.369000
20.002000 29.369000
20.028000 29.499000
20.052000 30.299000
20.078000 29.499000
20.102000 30.299000
20.127000 29.369000
20.153000 30.299000
20.177000 30.474000
20.203000 29.253000
20.227000 30.669000
20.252000 30.299000
20.278000 29.369000
20.302000 30.299000
20.328000 30.669000
20.352000 31.347000
20.377000 30.474000
20.403000 31.580000
20.427000 30.474000
20.453000 31.580000
20.477000 31.580000
20.502000 30.474000
20.528000 31.840000
20.552000 32.687000
20.578000 30.669000
20.602000 32.687000
20.627000 31.580000
20.653000 32.687000
20.677000 31.580000
20.703000 32.687000
20.727000 32.687000
20.752000 33.445000
20.778000 32.687000
20.802000 33.795000
20.828000 33.795000
20.852000 33.445000
20.877000 34.904000
20.903000 34.128000
20.927000 34.904000
20.953000 35.547000
20.977000 36.015000
21.002000 36.015000
21.028000 37.127000
21.052000 38.129000
21.078000 37.716000
21.102000 38.709000
21.127000 38.895000
21.153000 39.765000
21.177000 40.076000
21.203000 39.765000
21.230000 40.076000
21.252000 40.470000
21.278000 40.888000
21.302000 40.470000
21.328000 40.470000
21.352000 40.470000
21.377000 41.587000
21.403000 40.470000
21.427000 40.470000
21.453000 40.822000
21.477000 41.587000
21.502000 40.822000
21.528000 41.258000
21.552000 41.881000
21.578000 41.587000
21.602000 41.881000
21.627000 42.704000
21.653000 41.587000
21.677000 43.626000
21.703000 42.145000
21.727000 43.823000
21.752000 42.940000
21.778000 43.823000
21.802000 43.823000
21.828000 44.943000
21.852000 43.823000
21.877000 45.998000
21.903000 45.061000
21.927000 45.998000
21.953000 46.123000
21.977000 45.998000
22.002000 44.943000
22.028000 45.998000
22.052000 46.123000
22.078000 45.998000
22.102000 45.061000
22.127000 46.064000
22.153000 45.061000
22.177000 46.064000
22.203000 45.061000
22.227000 43.823000
22.252000 45.061000
22.278000 42.704000
22.302000 44.000000
22.328000 42.704000
22.352000 42.940000
22.377000 42.704000
22.403000 41.881000
22.427000 41.587000
22.453000 41.881000
22.477000 40.470000
22.502000 39.765000
22.528000 40.470000
22.552000 38.709000
22.578000 40.076000
22.602000 38.709000
22.627000 38.240000
22.653000 38.240000
22.677000 38.240000
22.703000 37.654000
22.727000 37.127000
22.752000 38.709000
22.778000 38.240000
22.802000 38.709000
22.828000 37.716000
22.852000 39.131000
22.877000 39.354000
22.903000 38.129000
22.927000 39.354000
22.953000 38.709000
22.977000 39.354000
23.002000 39.131000
23.028000 38.240000
23.052000 39.131000
23.078000 38.240000
23.102000 38.129000
23.127000 38.240000
23.153000 37.654000
23.177000 37.127000
23.203000 38.129000
23.227000 37.654000
23.252000 38.709000
23.278000 37.654000
23.302000 38.129000
23.328000 38.709000
23.352000 38.709000
23.377000 38.240000
23.403000 39.131000
23.427000 38.709000
23.453000 39.765000
23.477000 39.765000
23.502000 39.131000
23.528000 39.354000
23.552000 39.131000
23.578000 39.765000
23.602000 39.131000
23.627000 40.822000
23.653000 39.131000
23.677000 40.822000
23.703000 40.135000
23.727000 40.470000
23.752000 41.140000
23.778000 40.822000
23.802000 41.140000
23.828000 41.881000
23.852000 42.145000
23.877000 41.881000
23.903000 42.940000
23.927000 42.940000
23.953000 43.152000
23.977000 44.000000
24.002000 44.159000
24.028000 44.159000
24.052000 44.159000
24.078000 43.823000
24.102000 45.167000
24.127000 43.823000
24.153000 45.167000
24.177000 45.061000
24.203000 45.061000
24.227000 45.061000
24.252000 45.167000
24.278000 46.064000
24.302000 46.123000
24.328000 46.123000
24.352000 45.167000
24.377000 46.064000
24.403000 47.187000
24.427000 46.064000
24.453000 46.177000
24.477000 47.187000
24.502000 47.187000
24.528000 48.310000
24.552000 47.187000
24.578000 48.310000
24.602000 49.209000
24.627000 49.316000
24.653000 50.382000
24.677000 50.382000
24.703000 51.236000
24.727000 52.814000
24.752000 53.265000
24.778000 53.943000
24.802000 55.299000
24.828000 55.727000
24.852000 57.871000
24.877000 58.945000
24.903000 60.019000
24.927000 62.171000
24.953000 63.464000
24.977000 66.425000
25.002000 68.593000
25.028000 72.137000
25.052000 74.067000
25.078000 78.418000
25.102000 82.782000
25.127000 86.063000
25.153000 91.548000
25.177000 94.053000
25.203000 100.363000
25.227000 103.681000
25.252000 108.116000
25.278000 112.748000
25.302000 118.136000
25.328000 122.608000
25.352000 128.214000
25.377000 132.711000
25.403000 138.348000
25.427000 142.367000
25.453000 148.707000
25.477000 153.146000
25.502000 157.639000
25.528000 162.205000
25.552000 166.782000
25.578000 171.242000
25.602000 175.967000
25.627000 179.742000
25.653000 182.882000
25.677000 187.055000
25.703000 189.820000
25.727000 194.393000
25.752000 195.618000
25.778000 199.298000
25.802000 201.141000
25.828000 204.215000
25.852000 206.677000
25.877000 207.910000
25.903000 209.597000
25.927000 211.610000
25.953000 213.105000
25.977000 213.105000
26.002000 215.447000
26.028000 216.619000
26.052000 216.619000
26.078000 217.792000
26.102000 218.906000
26.127000 219.030000
26.153000 220.021000
26.177000 220.269000
26.203000 220.021000
26.227000 220.269000
26.252000 221.136000
26.278000 220.138000
26.302000 221.313000
26.328000 220.269000
26.352000 221.136000
26.377000 220.269000
26.403000 218.965000
26.427000 220.269000
26.453000 218.965000
26.477000 217.792000
26.502000 217.792000
26.528000 217.792000
26.552000 216.619000
26.578000 214.276000
26.602000 214.452000
26.627000 212.845000
26.653000 211.117000
